Tempo(s)	Deformacao(mm)	Forca(N)
0.016667 	0.00000 	0.0016178 
0.10000 	0.0015132 	0.00000 
0.11667 	0.0032155 	0.00000 
0.13333 	0.0049179 	0.0016178 
0.15000 	0.0066202 	0.00000 
0.16667 	0.0077551 	0.00000 
0.18333 	0.0088900 	0.00000 
0.20000 	0.010025 	0.00000 
0.21667 	0.011538 	0.0016178 
0.23333 	0.013051 	0.0016178 
0.25000 	0.014754 	0.00000 
0.26667 	0.016456 	0.0016178 
0.28333 	0.018158 	0.00000 
0.30000 	0.019861 	0.00000 
0.31667 	0.021563 	0.0016178 
0.33333 	0.023644 	0.00000 
0.35000 	0.025535 	0.00000 
0.36667 	0.027237 	0.0016178 
0.38333 	0.028940 	0.0016178 
0.40000 	0.030642 	0.00000 
0.41667 	0.032344 	0.0016178 
0.43333 	0.034047 	0.0016178 
0.45000 	0.035749 	0.00000 
0.46667 	0.037262 	0.0016178 
0.48333 	0.038965 	0.0016178 
0.50000 	0.040478 	0.00000 
0.51667 	0.041991 	0.0016178 
0.53333 	0.043693 	0.0016178 
0.55000 	0.045396 	0.0016178 
0.56667 	0.047287 	0.0016178 
0.58333 	0.048990 	0.0016178 
0.60000 	0.050692 	0.00000 
0.61667 	0.052394 	0.0016178 
0.63333 	0.053907 	0.0016178 
0.65000 	0.055421 	0.00000 
0.66667 	0.057123 	0.0016178 
0.68333 	0.058825 	0.0016178 
0.70000 	0.060528 	0.00000 
0.71667 	0.062419 	0.00000 
0.73333 	0.064122 	0.00000 
0.75000 	0.066013 	0.0016178 
0.76667 	0.067715 	0.0016178 
0.78333 	0.069229 	0.0016178 
0.80000 	0.070931 	0.0016178 
0.81667 	0.072444 	0.0016178 
0.83333 	0.074146 	0.0016178 
0.85000 	0.075849 	0.0016178 
0.86667 	0.077740 	0.00000 
0.88333 	0.079443 	0.0016178 
0.90000 	0.081145 	0.0016178 
0.91667 	0.082658 	0.0016178 
0.93333 	0.084360 	0.0016178 
0.95000 	0.085874 	0.0016178 
0.96667 	0.087576 	0.0032355 
0.98333 	0.089089 	0.0032355 
1.0000 	0.090792 	0.0032355 
1.0167 	0.092494 	0.0032355 
1.0333 	0.094196 	0.0032355 
1.0500 	0.095899 	0.0064711 
1.0667 	0.097601 	0.0080889 
1.0833 	0.099303 	0.0080889 
1.1000 	0.10082 	0.0097066 
1.1167 	0.10233 	0.011324 
1.1333 	0.10403 	0.012942 
1.1500 	0.10573 	0.014560 
1.1667 	0.10744 	0.014560 
1.1833 	0.10914 	0.017796 
1.2000 	0.11103 	0.019413 
1.2167 	0.11273 	0.021031 
1.2333 	0.11444 	0.022649 
1.2500 	0.11595 	0.024267 
1.2667 	0.11746 	0.025884 
1.2833 	0.11916 	0.027502 
1.3000 	0.12087 	0.029120 
1.3167 	0.12238 	0.030738 
1.3333 	0.12408 	0.032355 
1.3500 	0.12578 	0.033973 
1.3667 	0.12749 	0.035591 
1.3833 	0.12919 	0.037209 
1.4000 	0.13070 	0.038827 
1.4167 	0.13240 	0.040444 
1.4333 	0.13392 	0.043680 
1.4500 	0.13543 	0.043680 
1.4667 	0.13713 	0.046915 
1.4833 	0.13884 	0.046915 
1.5000 	0.14054 	0.048533 
1.5167 	0.14243 	0.051769 
1.5333 	0.14413 	0.053387 
1.5500 	0.14583 	0.055004 
1.5667 	0.14735 	0.056622 
1.5833 	0.14905 	0.058240 
1.6000 	0.15056 	0.059858 
1.6167 	0.15226 	0.063093 
1.6333 	0.15397 	0.063093 
1.6500 	0.15586 	0.064711 
1.6667 	0.15756 	0.066329 
1.6833 	0.15926 	0.069564 
1.7000 	0.16097 	0.071182 
1.7167 	0.16248 	0.072800 
1.7333 	0.16418 	0.074418 
1.7500 	0.16588 	0.074418 
1.7667 	0.16740 	0.077653 
1.7833 	0.16910 	0.079271 
1.8000 	0.17080 	0.079271 
1.8167 	0.17250 	0.080889 
1.8333 	0.17421 	0.084124 
1.8500 	0.17591 	0.084124 
1.8667 	0.17742 	0.087360 
1.8833 	0.17912 	0.088978 
1.9000 	0.18064 	0.088978 
1.9167 	0.18234 	0.092213 
1.9333 	0.18385 	0.093831 
1.9500 	0.18556 	0.095449 
1.9667 	0.18726 	0.095449 
1.9833 	0.18896 	0.098684 
2.0000 	0.19085 	0.098684 
2.0167 	0.19236 	0.10030 
2.0333 	0.19407 	0.10354 
2.0500 	0.19577 	0.10516 
2.0667 	0.19747 	0.10677 
2.0833 	0.19917 	0.10677 
2.1000 	0.20088 	0.10839 
2.1167 	0.20258 	0.11001 
2.1333 	0.20428 	0.11324 
2.1500 	0.20598 	0.11486 
2.1667 	0.20769 	0.11486 
2.1833 	0.20939 	0.11648 
2.2000 	0.21090 	0.11810 
2.2167 	0.21260 	0.11972 
2.2333 	0.21412 	0.12133 
2.2500 	0.21582 	0.12133 
2.2667 	0.21752 	0.12457 
2.2833 	0.21903 	0.12619 
2.3000 	0.22074 	0.12780 
2.3167 	0.22244 	0.12780 
2.3333 	0.22414 	0.12942 
2.3500 	0.22584 	0.13104 
2.3833 	0.22906 	0.13589 
2.4167 	0.23227 	0.13589 
2.4333 	0.23398 	0.13913 
2.4500 	0.23568 	0.13913 
2.4667 	0.23738 	0.14075 
2.4833 	0.23908 	0.14236 
2.5000 	0.24079 	0.14398 
2.5167 	0.24249 	0.14398 
2.5500 	0.24570 	0.14722 
2.5833 	0.24911 	0.15045 
2.6167 	0.25251 	0.15369 
2.6333 	0.25441 	0.15531 
2.6667 	0.25762 	0.15692 
2.7000 	0.26065 	0.16016 
2.7333 	0.26386 	0.16178 
2.7667 	0.26727 	0.16340 
2.8000 	0.27067 	0.16663 
2.8333 	0.27408 	0.16987 
2.8667 	0.27729 	0.17148 
2.9000 	0.28051 	0.17310 
2.9333 	0.28410 	0.17472 
2.9667 	0.28732 	0.17796 
3.0000 	0.29072 	0.17957 
3.0333 	0.29394 	0.18281 
3.0667 	0.29734 	0.18281 
3.1000 	0.30075 	0.18604 
3.1333 	0.30415 	0.18766 
3.1667 	0.30756 	0.18928 
3.2000 	0.31077 	0.19090 
3.2333 	0.31418 	0.19252 
3.2667 	0.31739 	0.19575 
3.3000 	0.32080 	0.19575 
3.3333 	0.32401 	0.19737 
3.3667 	0.32723 	0.20060 
3.4000 	0.33082 	0.20060 
3.4333 	0.33404 	0.20384 
3.4667 	0.33744 	0.20384 
3.5000 	0.34066 	0.20546 
3.5333 	0.34406 	0.20707 
3.5667 	0.34747 	0.20869 
3.6000 	0.35087 	0.20869 
3.6333 	0.35409 	0.21031 
3.6667 	0.35730 	0.21193 
3.7000 	0.36071 	0.21355 
3.7333 	0.36411 	0.21355 
3.7667 	0.36752 	0.21355 
3.8000 	0.37054 	0.21516 
3.8333 	0.37395 	0.21678 
3.8667 	0.37716 	0.21678 
3.9000 	0.38057 	0.21840 
3.9333 	0.38397 	0.21840 
3.9667 	0.38738 	0.22002 
4.0000 	0.39078 	0.22163 
4.0333 	0.39419 	0.22163 
4.0667 	0.39759 	0.22163 
4.1000 	0.40081 	0.22487 
4.1333 	0.40421 	0.22487 
4.1667 	0.40743 	0.22487 
4.2000 	0.41083 	0.22487 
4.2333 	0.41424 	0.22649 
4.2833 	0.41897 	0.22649 
4.3167 	0.42218 	0.22649 
4.3500 	0.42559 	0.22811 
4.3833 	0.42899 	0.22811 
4.4167 	0.43221 	0.22972 
4.4500 	0.43561 	0.22972 
4.4833 	0.43901 	0.23134 
4.5167 	0.44242 	0.23134 
4.5500 	0.44582 	0.23134 
4.6000 	0.45055 	0.23134 
4.6333 	0.45396 	0.23296 
4.6667 	0.45736 	0.23296 
4.7000 	0.46077 	0.23458 
4.7500 	0.46550 	0.23296 
4.8000 	0.47060 	0.23458 
4.8500 	0.47571 	0.23619 
4.9000 	0.48063 	0.23619 
4.9500 	0.48573 	0.23619 
5.0000 	0.49084 	0.23781 
5.0500 	0.49576 	0.23781 
5.1000 	0.50068 	0.23781 
5.1500 	0.50578 	0.23943 
5.2000 	0.51070 	0.23943 
5.2500 	0.51562 	0.24105 
5.3000 	0.52073 	0.24105 
5.3500 	0.52583 	0.24105 
5.4000 	0.53075 	0.24267 
5.4500 	0.53586 	0.24105 
5.5000 	0.54097 	0.24428 
5.5500 	0.54588 	0.24428 
5.6000 	0.55099 	0.24428 
5.6500 	0.55591 	0.24428 
5.7000 	0.56064 	0.24590 
5.7500 	0.56556 	0.24590 
5.8000 	0.57047 	0.24590 
5.8500 	0.57539 	0.24590 
5.9000 	0.58050 	0.24590 
5.9500 	0.58579 	0.24752 
6.0000 	0.59052 	0.24752 
6.0500 	0.59563 	0.24752 
6.1000 	0.60093 	0.24752 
6.1500 	0.60584 	0.24914 
6.2000 	0.61076 	0.24914 
6.2500 	0.61568 	0.24914 
6.3000 	0.62060 	0.25075 
6.3500 	0.62552 	0.25075 
6.4000 	0.63062 	0.25075 
6.4500 	0.63573 	0.25075 
6.5167 	0.64216 	0.25075 
6.5667 	0.64727 	0.25237 
6.6167 	0.65219 	0.25237 
6.6667 	0.65710 	0.25237 
6.7167 	0.66221 	0.25237 
6.7833 	0.66883 	0.25237 
6.8500 	0.67564 	0.25237 
6.9000 	0.68094 	0.25399 
6.9667 	0.68756 	0.25399 
7.0333 	0.69437 	0.25561 
7.1000 	0.70080 	0.25561 
7.1667 	0.70723 	0.25561 
7.2333 	0.71404 	0.25561 
7.3000 	0.72066 	0.25561 
7.3667 	0.72747 	0.25723 
7.4333 	0.73409 	0.25723 
7.5000 	0.74090 	0.25723 
7.5667 	0.74752 	0.25723 
7.6333 	0.75414 	0.25884 
7.7000 	0.76076 	0.25884 
7.7667 	0.76719 	0.26046 
7.8333 	0.77419 	0.26046 
7.9000 	0.78062 	0.26046 
7.9667 	0.78743 	0.26046 
8.0333 	0.79405 	0.26046 
8.1000 	0.80048 	0.26046 
8.1667 	0.80748 	0.26208 
8.2333 	0.81391 	0.26208 
8.3000 	0.82072 	0.26208 
8.3667 	0.82734 	0.26208 
8.4333 	0.83396 	0.26208 
8.5000 	0.84077 	0.26370 
8.5667 	0.84720 	0.26370 
8.6333 	0.85420 	0.26531 
8.7167 	0.86233 	0.26531 
8.7833 	0.86914 	0.26531 
8.8667 	0.87727 	0.26531 
8.9333 	0.88408 	0.26531 
9.0167 	0.89222 	0.26693 
9.0833 	0.89903 	0.26693 
9.1667 	0.90735 	0.26693 
9.2500 	0.91567 	0.26693 
9.3333 	0.92399 	0.26855 
9.4167 	0.93250 	0.26693 
9.5000 	0.94064 	0.26855 
9.5833 	0.94915 	0.26855 
9.6667 	0.95747 	0.26855 
9.7500 	0.96579 	0.26855 
9.8333 	0.97393 	0.27179 
9.9167 	0.98244 	0.27017 
10.000 	0.99057 	0.27179 
10.083 	0.99909 	0.27179 
10.167 	1.0074 	0.27179 
10.250 	1.0159 	0.27340 
10.333 	1.0241 	0.27340 
10.417 	1.0322 	0.27340 
10.500 	1.0407 	0.27340 
10.583 	1.0488 	0.27340 
10.667 	1.0573 	0.27340 
10.750 	1.0657 	0.27502 
10.833 	1.0740 	0.27502 
10.933 	1.0838 	0.27502 
11.017 	1.0923 	0.27664 
11.117 	1.1024 	0.27664 
11.200 	1.1109 	0.27664 
11.300 	1.1209 	0.27826 
11.400 	1.1307 	0.27826 
11.500 	1.1408 	0.27987 
11.600 	1.1508 	0.27987 
11.700 	1.1608 	0.27987 
11.800 	1.1708 	0.27987 
11.900 	1.1807 	0.27987 
12.000 	1.1903 	0.27987 
12.100 	1.2007 	0.27826 
12.200 	1.2107 	0.27987 
12.300 	1.2208 	0.27987 
12.383 	1.2291 	0.22325 
12.400 	1.2308 	0.042062 
